File: helita/data/BFI_filter_3883.txt
# BFI filter transmission function, for the 3883 filter
# Taken from solarsoft's fg_bfi_filter.pro on the 20/5/2013.
# Wavelength (nm)   Transmission (%)
386   2.89044E-01
386.02   1.36787E-01
386.04   2.19389E-01
386.06   1.12088E-01
386.08   2.25568E-01
386.1   4.30532E-01
386.12   7.04246E-01
386.14   2.87375E-01
386.16   4.74811E-01
386.18   2.38087E-01
386.2   6.43104E-01
386.22   2.85872E-01
386.24   3.53980E-01
386.26   5.14771E-01
386.28   5.17363E-01
386.3   6.42822E-01
386.32   5.19873E-01
386.34   6.32653E-01
386.36   2.00271E-01
386.38   3.15142E-01
386.4   5.20432E-01
386.42   7.93115E-02
386.44   5.84417E-01
386.46   2.79235E-01
386.48   1.66676E-01
386.5   6.18468E-01
386.52   3.77526E-01
386.54   2.59643E-01
386.56   5.30883E-01
386.58   4.83869E-01
386.6   7.71201E-01
386.62   3.48617E-01
386.64   6.15355E-01
386.66   4.10311E-01
386.68   6.00900E-01
386.7   6.84634E-01
386.72   3.17400E-01
386.74   1.03369E+00
386.76   4.46465E-01
386.78   7.77534E-01
386.8   8.60174E-01
386.82   7.54137E-01
386.84   5.97293E-01
386.86   3.82132E-01
386.88   7.16138E-01
386.9   7.92305E-01
386.919   7.26865E-01
386.939   7.32395E-01
386.959   6.67234E-01
386.979   9.72737E-01
386.999   1.30323E+00
387.019   7.15399E-01
387.039   8.20914E-01
387.059   7.44799E-01
387.079   1.03223E+00
387.099   1.24861E+00
387.119   1.09477E+00
387.139   1.24653E+00
387.159   1.05584E+00
387.179   1.30744E+00
387.199   1.40918E+00
387.219   1.74435E+00
387.239   1.31698E+00
387.259   1.42178E+00
387.279   1.31654E+00
387.299   2.15723E+00
387.319   1.94574E+00
387.339   1.81695E+00
387.359   2.28533E+00
387.379   2.93504E+00
387.399   3.22002E+00
387.419   3.91160E+00
387.439   5.44308E+00
387.459   6.29023E+00
387.479   7.92460E+00
387.499   1.21883E+01
387.519   1.45897E+01
387.539   2.02032E+01
387.559   2.52529E+01
387.579   3.47478E+01
387.599   4.25561E+01
387.619   4.90853E+01
387.639   5.70708E+01
387.659   6.05716E+01
387.679   6.08094E+01
387.699   6.50303E+01
387.719   6.49355E+01
387.739   6.44592E+01
387.759   6.25339E+01
387.779   6.42075E+01
387.799   6.39487E+01
387.819   6.55357E+01
387.839   6.46141E+01
387.859   6.40050E+01
387.879   6.49965E+01
387.899   6.50415E+01
387.919   6.45166E+01
387.939   6.39561E+01
387.959   6.29683E+01
387.979   6.20094E+01
387.999   5.73668E+01
388.019   5.50677E+01
388.039   5.11946E+01
388.059   4.40543E+01
388.079   3.86649E+01
388.099   3.31900E+01
388.119   2.77598E+01
388.139   2.18806E+01
388.159   1.76984E+01
388.179   1.29155E+01
388.199   9.53818E+00
388.219   7.89934E+00
388.239   6.16403E+00
388.259   5.25689E+00
388.279   4.48509E+00
388.299   3.39288E+00
388.319   3.25337E+00
388.339   2.69069E+00
388.359   2.22625E+00
388.379   1.63386E+00
388.399   1.94369E+00
388.419   1.52509E+00
388.439   1.58813E+00
388.459   1.04998E+00
388.479   1.48612E+00
388.499   1.26049E+00
388.519   1.06934E+00
388.539   9.46848E-01
388.559   1.21803E+00
388.579   9.15912E-01
388.599   1.21944E+00
388.619   8.26938E-01
388.639   4.99271E-01
388.659   8.27066E-01
388.679   9.52484E-01
388.699   7.52860E-01
388.719   9.45543E-01
388.738   6.79021E-01
388.758   8.17747E-01
388.778   8.26540E-01
388.798   6.34923E-01
388.818   7.07431E-01
388.838   6.06137E-01
388.858   8.69770E-01
388.878   8.06851E-01
388.898   6.39021E-01
388.918   7.31677E-01
388.938   7.54317E-01
388.958   4.23451E-01
388.978   4.83678E-01
388.998   6.54177E-01
389.018   0.00000E+00