File: helita/data/BFI_filter_6684.txt
# BFI filter transmission function, for the 6684 (blue continuum) filter
# Taken from solarsoft's fg_bfi_filter.pro on the 20/5/2013.
# Wavelength (nm)   Transmission (%)
  667.5   5.84927E-01
  667.52   5.48671E-01
  667.54   4.76462E-01
  667.56   6.53497E-01
  667.58   5.07547E-01
  667.6   6.06368E-01
  667.62   5.10064E-01
  667.64   4.26534E-01
  667.66   4.70421E-01
  667.68   4.48958E-01
  667.7   5.10423E-01
  667.72   5.04737E-01
  667.74   5.64231E-01
  667.76   6.63579E-01
  667.78   6.62066E-01
  667.8   7.39114E-01
  667.82   7.29035E-01
  667.84   6.45570E-01
  667.86   8.30004E-01
  667.88   9.07289E-01
  667.9   9.84925E-01
  667.92   9.88724E-01
  667.94   9.72527E-01
  667.96   1.26011E+00
  667.98   1.32165E+00
  668   1.52239E+00
  668.021   1.66195E+00
  668.041   1.81549E+00
  668.061   2.11224E+00
  668.081   2.33319E+00
  668.101   2.89723E+00
  668.121   3.50625E+00
  668.141   4.15713E+00
  668.161   5.24399E+00
  668.181   6.21673E+00
  668.201   8.13868E+00
  668.221   1.10955E+01
  668.241   1.41287E+01
  668.261   1.81728E+01
  668.281   2.25069E+01
  668.301   2.91285E+01
  668.321   4.14081E+01
  668.341   5.04012E+01
  668.361   5.70938E+01
  668.381   6.78263E+01
  668.401   7.58278E+01
  668.421   7.98645E+01
  668.441   8.12296E+01
  668.461   8.22755E+01
  668.481   8.25568E+01
  668.501   8.16077E+01
  668.521   8.01305E+01
  668.541   7.77678E+01
  668.561   7.42166E+01
  668.581   6.80716E+01
  668.601   5.94155E+01
  668.621   4.84869E+01
  668.641   4.02291E+01
  668.661   3.18232E+01
  668.681   2.54800E+01
  668.701   1.78751E+01
  668.721   1.32858E+01
  668.741   1.04033E+01
  668.761   8.26953E+00
  668.781   6.70834E+00
  668.801   5.07603E+00
  668.821   4.05731E+00
  668.841   3.26032E+00
  668.861   2.93052E+00
  668.881   2.42399E+00
  668.901   2.12203E+00
  668.921   1.90375E+00
  668.941   1.66630E+00
  668.961   1.55380E+00
  668.981   1.34347E+00
  669.001   1.22637E+00
  669.021   1.07262E+00
  669.042   9.26428E-01
  669.062   8.72812E-01
  669.082   8.44504E-01
  669.102   8.85276E-01
  669.122   8.47512E-01
  669.142   7.97393E-01
  669.162   8.44732E-01
  669.182   7.28825E-01
  669.202   7.75924E-01
  669.222   7.24461E-01
  669.242   5.42126E-01
  669.262   7.37140E-01
  669.282   5.33663E-01
  669.302   6.82437E-01
  669.322   6.58033E-01
  669.342   6.71916E-01
  669.362   7.92185E-01
  669.382   6.66101E-01
  669.402   6.90590E-01
  669.422   6.09262E-01
  669.442   4.35582E-01
  669.462   4.38039E-01
  669.482   3.48864E-01
  669.502   4.11322E-01