File: helita/data/BFI_filter_4305.txt
# BFI filter transmission function, for the 4305 (CH I) filter
# Taken from solarsoft's fg_bfi_filter.pro on the 20/5/2013.
# Wavelength (nm)   Transmission (%)
  429   3.94160E-02
  429.02   2.23182E-01
  429.04   1.29573E-01
  429.06   6.00339E-02
  429.08   9.49330E-02
  429.1   8.02797E-02
  429.12   9.90571E-02
  429.14   1.35418E-01
  429.16   1.74734E-01
  429.18   3.68015E-01
  429.2   1.59350E-01
  429.22   1.90263E-01
  429.24   2.64815E-01
  429.26   5.33625E-02
  429.28   2.16579E-01
  429.3   9.67894E-02
  429.32   2.98385E-01
  429.34   2.74203E-01
  429.36   3.84818E-01
  429.38   4.62398E-01
  429.4   2.69006E-01
  429.42   2.00903E-01
  429.44   3.94483E-01
  429.46   2.92514E-01
  429.48   2.92258E-01
  429.5   1.13445E-01
  429.52   3.61263E-01
  429.54   2.65663E-01
  429.56   3.62475E-01
  429.58   5.59730E-01
  429.6   2.88353E-01
  429.62   5.02648E-01
  429.64   3.84716E-01
  429.66   2.63368E-01
  429.68   4.68815E-01
  429.7   4.31511E-01
  429.72   5.36949E-01
  429.74   5.70390E-01
  429.76   6.31438E-01
  429.78   8.22348E-01
  429.8   6.88179E-01
  429.82   7.64261E-01
  429.84   7.57337E-01
  429.86   7.24956E-01
  429.88   7.92464E-01
  429.9   8.47313E-01
  429.919   9.67047E-01
  429.939   1.12044E+00
  429.959   1.04128E+00
  429.979   1.30061E+00
  429.999   1.37475E+00
  430.019   1.48055E+00
  430.039   1.53857E+00
  430.059   1.60154E+00
  430.079   1.86719E+00
  430.099   2.08749E+00
  430.119   2.59548E+00
  430.139   3.20295E+00
  430.159   3.97622E+00
  430.179   5.19240E+00
  430.199   5.91244E+00
  430.219   9.14347E+00
  430.239   1.43131E+01
  430.259   1.90484E+01
  430.279   2.51508E+01
  430.299   3.15236E+01
  430.319   4.56567E+01
  430.339   5.90353E+01
  430.359   6.70573E+01
  430.379   7.38116E+01
  430.399   7.47980E+01
  430.419   7.45312E+01
  430.439   7.00333E+01
  430.459   6.67742E+01
  430.479   6.37160E+01
  430.499   6.00239E+01
  430.519   5.88069E+01
  430.539   5.74690E+01
  430.559   5.81959E+01
  430.579   5.87344E+01
  430.599   6.00341E+01
  430.619   6.36655E+01
  430.639   6.49713E+01
  430.659   6.76598E+01
  430.679   7.18611E+01
  430.699   7.25139E+01
  430.719   7.62452E+01
  430.739   7.87007E+01
  430.759   7.91024E+01
  430.779   8.04736E+01
  430.799   8.09427E+01
  430.819   7.83374E+01
  430.839   7.52064E+01
  430.859   7.09467E+01
  430.879   6.50463E+01
  430.899   6.11795E+01
  430.919   5.22459E+01
  430.939   4.06165E+01
  430.959   3.56073E+01
  430.979   3.00070E+01
  430.999   2.35505E+01
  431.019   1.76006E+01
  431.039   1.43009E+01
  431.059   1.11291E+01
  431.079   8.99256E+00
  431.099   8.15456E+00
  431.119   5.86636E+00
  431.139   4.64321E+00
  431.159   4.25721E+00
  431.179   3.42677E+00
  431.199   2.99285E+00
  431.219   2.59174E+00
  431.239   1.84675E+00
  431.259   1.86472E+00
  431.279   1.50710E+00
  431.299   1.44675E+00
  431.319   1.36759E+00
  431.339   1.43260E+00
  431.359   1.35210E+00
  431.379   1.29364E+00
  431.399   8.84148E-01
  431.419   9.54416E-01
  431.439   8.90238E-01
  431.459   6.66421E-01
  431.479   8.11600E-01
  431.499   6.79269E-01
  431.519   7.84977E-01
  431.539   6.58522E-01
  431.559   5.71623E-01
  431.579   6.90635E-01
  431.599   5.96698E-01
  431.619   6.98738E-01
  431.639   5.70932E-01
  431.659   4.73476E-01
  431.679   6.30977E-01
  431.699   5.19802E-01
  431.719   4.81807E-01
  431.738   5.75975E-01
  431.758   4.52057E-01
  431.778   5.79608E-01
  431.798   4.08019E-01
  431.818   5.30836E-01
  431.838   4.14523E-01
  431.858   3.60953E-01
  431.878   3.46448E-01
  431.898   3.90027E-01
  431.918   3.44342E-01
  431.938   3.24756E-01
  431.958   2.01604E-01
  431.978   3.95132E-01
  431.998   2.95525E-01
  432.018   0.00000E+00