File: helita/data/BFI_filter_5550.txt
# BFI filter transmission function, for the 5550 (green continuum) filter
# Taken from solarsoft's fg_bfi_filter.pro on the 20/5/2013.
# Wavelength (nm)   Transmission (%)
  554   8.56501E-01
  554.02   5.13122E-01
  554.04   7.81568E-01
  554.06   6.65980E-01
  554.08   5.94819E-01
  554.1   6.74314E-01
  554.12   6.63830E-01
  554.14   8.65471E-01
  554.16   6.90009E-01
  554.18   7.34297E-01
  554.2   8.84232E-01
  554.22   5.00583E-01
  554.24   7.91309E-01
  554.26   7.20990E-01
  554.28   7.01429E-01
  554.3   8.40140E-01
  554.32   8.06831E-01
  554.34   1.00176E+00
  554.36   9.29628E-01
  554.38   9.73039E-01
  554.4   1.08170E+00
  554.42   7.34961E-01
  554.44   1.08519E+00
  554.46   9.01923E-01
  554.48   9.76593E-01
  554.5   1.07801E+00
  554.521   1.07660E+00
  554.541   1.35923E+00
  554.561   1.32984E+00
  554.581   1.38886E+00
  554.601   1.55738E+00
  554.621   1.45622E+00
  554.641   1.86292E+00
  554.661   2.09185E+00
  554.681   2.37270E+00
  554.701   2.85958E+00
  554.721   3.15233E+00
  554.741   4.24431E+00
  554.761   5.05355E+00
  554.781   6.22658E+00
  554.801   8.82773E+00
  554.821   1.01243E+01
  554.841   1.41100E+01
  554.861   1.70075E+01
  554.881   2.36511E+01
  554.901   3.15081E+01
  554.921   3.83420E+01
  554.941   4.61742E+01
  554.961   5.50035E+01
  554.981   6.21874E+01
  555.001   6.71316E+01
  555.021   6.93629E+01
  555.041   7.12550E+01
  555.061   7.13580E+01
  555.081   7.02158E+01
  555.101   6.68838E+01
  555.121   6.18322E+01
  555.141   5.59924E+01
  555.161   4.55988E+01
  555.181   3.61477E+01
  555.201   2.73335E+01
  555.221   2.14989E+01
  555.241   1.54379E+01
  555.261   1.17817E+01
  555.281   9.21167E+00
  555.301   6.27112E+00
  555.321   5.17325E+00
  555.341   4.29243E+00
  555.361   3.37283E+00
  555.381   2.74664E+00
  555.401   2.28086E+00
  555.421   1.90081E+00
  555.441   1.71767E+00
  555.461   1.61036E+00
  555.481   1.31882E+00
  555.501   1.30767E+00
  555.521   1.09596E+00
  555.542   1.23909E+00
  555.562   9.81801E-01
  555.582   9.09110E-01
  555.602   9.80684E-01
  555.622   6.87673E-01
  555.642   7.99713E-01
  555.662   7.14248E-01
  555.682   7.10472E-01
  555.702   7.96468E-01
  555.722   6.24500E-01
  555.742   8.20447E-01
  555.762   6.55930E-01
  555.782   5.57917E-01
  555.802   7.56729E-01
  555.822   4.19045E-01
  555.842   6.17821E-01
  555.862   4.76560E-01
  555.882   5.22281E-01
  555.902   5.91956E-01
  555.922   4.66439E-01
  555.942   7.83963E-01
  555.962   5.63319E-01
  555.982   5.03350E-01
  556.002   6.32220E-01