File: helita/data/BFI_filter_3968.txt
# BFI filter transmission function, for the 3968 (Ca II H) filter
# Taken from solarsoft's fg_bfi_filter.pro on the 20/5/2013.
# Wavelength (nm)   Transmission (%)
  396   2.53740E-01
  396.02   6.37775E-01
  396.04   4.14606E-01
  396.06   8.12945E-01
  396.08   7.38937E-01
  396.1   4.68404E-01
  396.12   6.51570E-01
  396.14   5.12500E-01
  396.16   6.43956E-01
  396.18   5.66855E-01
  396.2   6.90507E-01
  396.22   7.67514E-01
  396.24   5.87664E-01
  396.26   7.96482E-01
  396.28   7.91651E-01
  396.3   6.17089E-01
  396.32   9.02312E-01
  396.34   7.15580E-01
  396.36   7.40659E-01
  396.38   9.47676E-01
  396.4   8.31604E-01
  396.42   1.12443E+00
  396.44   1.04710E+00
  396.46   1.33443E+00
  396.48   1.19019E+00
  396.5   1.45499E+00
  396.52   1.81541E+00
  396.54   1.69929E+00
  396.56   1.96939E+00
  396.58   2.22284E+00
  396.6   2.81295E+00
  396.62   3.50649E+00
  396.64   3.88749E+00
  396.66   5.95858E+00
  396.68   7.97391E+00
  396.7   1.14715E+01
  396.72   1.84901E+01
  396.74   2.63031E+01
  396.76   3.50879E+01
  396.78   4.23638E+01
  396.8   5.01946E+01
  396.82   5.78016E+01
  396.84   6.01381E+01
  396.86   6.33840E+01
  396.88   6.13961E+01
  396.9   6.10987E+01
  396.919   5.46264E+01
  396.939   4.90763E+01
  396.959   3.73303E+01
  396.979   2.96821E+01
  396.999   2.21231E+01
  397.019   1.38891E+01
  397.039   9.33866E+00
  397.059   6.46698E+00
  397.079   5.21292E+00
  397.099   3.94465E+00
  397.119   2.74861E+00
  397.139   2.02311E+00
  397.159   1.80446E+00
  397.179   1.65910E+00
  397.199   1.48745E+00
  397.219   1.21760E+00
  397.239   1.19158E+00
  397.259   1.20855E+00
  397.279   1.33405E+00
  397.299   1.03141E+00
  397.319   9.88053E-01
  397.339   8.31518E-01
  397.359   6.05388E-01
  397.379   7.26313E-01
  397.399   7.72963E-01
  397.419   8.60328E-01
  397.439   5.86375E-01
  397.459   9.44049E-01
  397.479   6.95328E-01
  397.499   7.65778E-01
  397.519   8.27092E-01
  397.539   2.76170E-01
  397.559   4.15335E-01
  397.579   5.84384E-01
  397.599   4.31424E-01
  397.619   7.95662E-01
  397.639   5.59868E-01
  397.659   5.75197E-01
  397.679   7.40268E-01
  397.699   5.74246E-01
  397.719   7.58477E-01
  397.739   3.04751E-01
  397.759   3.62612E-01
  397.779   5.26113E-01
  397.799   5.73880E-01
  397.819   4.43177E-01
  397.839   3.45665E-01
  397.859   5.27581E-01
  397.879   5.09018E-01
  397.899   3.96636E-01
  397.919   4.82860E-01
  397.939   2.51373E-01
  397.959   5.90468E-01
  397.979   3.99789E-01
  397.999   3.65358E-01
  398.019   0.00000E+00