File: helita/data/BFI_filter_4504.txt
# BFI filter transmission function, for the 4504 (red continuum) filter
# Taken from solarsoft's fg_bfi_filter.pro on the 20/5/2013.
# Wavelength (nm)   Transmission (%)
  449.5   6.03980E-01
  449.52   8.59870E-01
  449.54   8.21544E-01
  449.56   6.90119E-01
  449.58   7.17690E-01
  449.6   6.59262E-01
  449.62   7.58373E-01
  449.64   6.75276E-01
  449.66   7.58665E-01
  449.68   6.69968E-01
  449.7   7.47373E-01
  449.72   8.47416E-01
  449.74   9.25990E-01
  449.76   8.43972E-01
  449.78   7.44842E-01
  449.8   7.22041E-01
  449.82   8.41185E-01
  449.84   7.84675E-01
  449.86   7.63858E-01
  449.88   7.83325E-01
  449.9   7.83525E-01
  449.92   9.08490E-01
  449.94   8.42910E-01
  449.96   9.14441E-01
  449.98   7.90329E-01
  450   7.82786E-01
  450.02   8.32279E-01
  450.04   8.74256E-01
  450.06   8.75799E-01
  450.08   8.11030E-01
  450.1   9.33057E-01
  450.12   9.46912E-01
  450.14   1.11212E+00
  450.16   1.11947E+00
  450.18   1.14965E+00
  450.2   1.23532E+00
  450.22   1.39517E+00
  450.24   1.65985E+00
  450.26   1.84382E+00
  450.28   2.72082E+00
  450.3   3.63499E+00
  450.32   6.26672E+00
  450.34   9.48759E+00
  450.36   1.77336E+01
  450.38   2.91372E+01
  450.4   4.35769E+01
  450.419   5.50476E+01
  450.439   6.22327E+01
  450.459   6.69548E+01
  450.479   7.05949E+01
  450.499   7.07608E+01
  450.519   7.10104E+01
  450.539   6.98106E+01
  450.559   6.79127E+01
  450.579   5.84763E+01
  450.599   4.95630E+01
  450.619   3.79101E+01
  450.639   2.53185E+01
  450.659   1.65100E+01
  450.679   8.26842E+00
  450.699   4.97013E+00
  450.719   3.39672E+00
  450.739   2.46840E+00
  450.759   1.90419E+00
  450.779   1.53816E+00
  450.799   1.35130E+00
  450.819   1.18498E+00
  450.839   1.18303E+00
  450.859   1.14286E+00
  450.879   1.18416E+00
  450.899   1.06884E+00
  450.919   1.08183E+00
  450.939   1.17854E+00
  450.959   1.08518E+00
  450.979   1.15130E+00
  450.999   1.05106E+00
  451.019   9.70885E-01
  451.039   9.35153E-01
  451.059   9.66382E-01
  451.079   9.13385E-01
  451.099   1.03556E+00
  451.119   1.00712E+00
  451.139   9.75047E-01
  451.159   9.28771E-01
  451.179   9.02216E-01
  451.199   8.00065E-01
  451.219   8.77375E-01
  451.239   8.99593E-01
  451.259   9.00373E-01
  451.279   7.86938E-01
  451.299   8.51661E-01
  451.319   1.01332E+00
  451.339   8.36849E-01
  451.359   8.06861E-01
  451.379   7.62376E-01
  451.399   7.81179E-01
  451.419   7.05085E-01
  451.439   7.87141E-01
  451.459   7.41554E-01
  451.479   8.20278E-01
  451.499   7.91663E-01
  451.519   0.00000E+00